Table of N2-H2 collision-induced absorption values (in amagat**-2cm**-1)for IR intervals 1-29

Interval    T=100K       T=150K        T=200K        T=250K        T=300K
 1       1.09578E-06   6.32497E-07   4.33925E-07   3.23465E-07   2.54395E-07
 2       3.72418E-06   2.63319E-06   2.02712E-06   1.62789E-06   1.34977E-06
 3       3.11213E-06   3.08198E-06   2.91647E-06   2.68579E-06   2.45378E-06
 4       1.63488E-06   2.00951E-06   2.24820E-06   2.37103E-06   2.41323E-06
 5       1.41266E-06   1.72925E-06   1.94138E-06   2.07922E-06   2.17089E-06
 6       5.85035E-06   4.26499E-06   3.57654E-06   3.15460E-06   2.88500E-06
 7       2.21201E-05   1.13457E-05   7.41793E-06   5.52204E-06   4.45200E-06
 8       1.17087E-05   7.13458E-06   5.50359E-06   4.62044E-06   4.07017E-06
 9       3.92860E-06   3.93076E-06   4.19070E-06   4.33879E-06   4.35949E-06
10       5.89910E-06   7.83667E-06   8.77234E-06   8.89847E-06   8.59770E-06
11       2.96540E-05   2.78377E-05   2.45690E-05   2.13721E-05   1.85187E-05
12       1.79967E-05   1.87401E-05   1.82321E-05   1.69373E-05   1.54315E-05
13       5.66105E-06   7.47001E-06   8.43803E-06   8.81862E-06   8.83836E-06
14       1.83763E-06   3.24231E-06   4.46531E-06   5.35276E-06   5.91320E-06
15       1.15966E-06   2.71807E-06   4.07106E-06   5.01970E-06   5.61679E-06
16       3.60206E-07   9.67407E-07   1.72721E-06   2.49673E-06   3.21154E-06
17       1.40107E-07   4.60246E-07   1.10170E-06   2.01128E-06   3.03073E-06
18       8.35700E-08   5.06842E-07   1.53097E-06   2.95637E-06   4.45367E-06
19       4.68323E-08   3.04998E-07   1.01841E-06   2.10762E-06   3.33946E-06
20       3.01846E-08   1.19231E-07   3.99219E-07   8.98600E-07   1.55265E-06
21       1.86031E-08   4.43421E-08   1.42979E-07   3.61452E-07   7.03491E-07
22       7.69602E-09   2.03222E-08   6.39549E-08   1.70417E-07   3.55893E-07
23       2.89345E-09   9.01704E-09   2.58600E-08   7.41764E-08   1.73835E-07
24       2.61919E-09   6.50255E-09   1.37537E-08   3.78412E-08   9.43963E-08
25       1.43630E-08   1.62381E-08   1.81026E-08   2.51449E-08   4.34849E-08
26       1.37614E-08   1.45359E-08   1.53015E-08   1.82310E-08   2.53328E-08
27       3.98803E-09   5.69032E-09   7.19215E-09   9.17543E-09   1.26113E-08
28       1.22119E-09   2.15428E-09   3.17849E-09   4.42182E-09   6.28784E-09
29       5.89408E-10   1.40024E-09   2.31314E-09   3.27946E-09   4.48881E-09
2600.0  0.0310   329.46  0.8484    1.0857
2800.0  0.0365   327.59  0.8532    1.0826
3000.0  0.0436   325.16  0.8596    1.0786
3200.0  0.0519   322.36  0.8671    1.0739
3400.0  0.0596   319.74  0.8742    1.0696
3600.0  0.0678   316.96  0.8819    1.0649
3800.0  0.0766   313.97  0.8902    1.0598
4000.0  0.0851   311.08  0.8985    1.0550
4200.0  0.0943   307.93  0.9077    1.0496
4400.0  0.1064   303.83  0.9200    1.0426
4600.0  0.1207   298.96  0.9349    1.0342
4800.0  0.1351   294.07  0.9505    1.0257
5000.0  0.1488   289.42  0.9658    1.0176
5200.0  0.1626   284.73  0.9817    1.0093
5400.0  0.1755   280.32  0.9971    1.0014
5600.0  0.1897   275.50  1.0146    0.9928
